#    value,    counts
   0.00000,       189
   0.50000,       218
   1.00000,       189
   1.50000,       222
   2.00000,       207
   2.50000,       214
   3.00000,       226
   3.50000,       226
   4.00000,       223
   4.50000,       222
   5.00000,       215
   5.50000,       209
   6.00000,       206
   6.50000,       192
   7.00000,       185
   7.50000,       189
   8.00000,       195
   8.50000,       193
   9.00000,       207
   9.50000,       186
  10.00000,       186
  10.50000,       208
  11.00000,       204
  11.50000,       214
  12.00000,       204
  12.50000,       216
  13.00000,       198
  13.50000,       206
  14.00000,       229
  14.50000,       216
  15.00000,       151
  15.50000,       195
  16.00000,       214
  16.50000,       202
  17.00000,       193
  17.50000,       219
  18.00000,       209
  18.50000,       211
  19.00000,       196
  19.50000,       184
  20.00000,       197
  20.50000,       212
  21.00000,       202
  21.50000,       209
  22.00000,       184
  22.50000,       176
  23.00000,       211
  23.50000,       207
  24.00000,       223
  24.50000,       201
  25.00000,       199
  25.50000,       179
  26.00000,       202
  26.50000,       197
  27.00000,       215
  27.50000,       205
  28.00000,       213
  28.50000,       194
  29.00000,       179
  29.50000,       202
  30.00000,       208
  30.50000,       192
  31.00000,       193
  31.50000,       199
  32.00000,       208
  32.50000,       182
  33.00000,       194
  33.50000,       207
  34.00000,       188
  34.50000,       205
  35.00000,       197
  35.50000,       192
  36.00000,       203
  36.50000,       209
  37.00000,       199
  37.50000,       201
  38.00000,       195
  38.50000,       212
  39.00000,       213
  39.50000,       198
  40.00000,       230
  40.50000,       181
  41.00000,       157
  41.50000,       207
  42.00000,       195
  42.50000,       207
  43.00000,       206
  43.50000,       210
  44.00000,       209
  44.50000,       192
  45.00000,       203
  45.50000,       192
  46.00000,       196
  46.50000,       223
  47.00000,       220
  47.50000,       204
  48.00000,       187
  48.50000,       196
  49.00000,       207
  49.50000,       191
  50.00000,       187
  50.50000,       190
  51.00000,       199
  51.50000,       215
  52.00000,       230
  52.50000,       232
  53.00000,       178
  53.50000,       183
  54.00000,       200
  54.50000,       193
  55.00000,       210
  55.50000,       190
  56.00000,       177
  56.50000,       187
  57.00000,       151
  57.50000,       223
  58.00000,       210
  58.50000,       183
  59.00000,       210
  59.50000,       211
  60.00000,       190
  60.50000,       206
  61.00000,       206
  61.50000,       212
  62.00000,       201
  62.50000,       199
  63.00000,       158
  63.50000,       200
  64.00000,       218
  64.50000,       186
  65.00000,       229
  65.50000,       193
  66.00000,       226
  66.50000,       216
  67.00000,       182
  67.50000,       204
  68.00000,       185
  68.50000,       234
  69.00000,       211
  69.50000,       216
  70.00000,       198
  70.50000,       177
  71.00000,       199
  71.50000,       211
  72.00000,       203
  72.50000,       190
  73.00000,       195
  73.50000,       195
  74.00000,       187
  74.50000,       181
  75.00000,       207
  75.50000,       216
  76.00000,       196
  76.50000,       221
  77.00000,       189
  77.50000,       202
  78.00000,       197
  78.50000,       188
  79.00000,       189
  79.50000,       191
  80.00000,       201
  80.50000,       189
  81.00000,       210
  81.50000,       200
  82.00000,       187
  82.50000,       200
  83.00000,       184
  83.50000,       204
  84.00000,       200
  84.50000,       239
  85.00000,       214
  85.50000,       204
  86.00000,       212
  86.50000,       202
  87.00000,       201
  87.50000,       227
  88.00000,       193
  88.50000,       189
  89.00000,       209
  89.50000,       209
  90.00000,       197
  90.50000,       223
  91.00000,       206
  91.50000,       206
  92.00000,       181
  92.50000,       170
  93.00000,       215
  93.50000,       210
  94.00000,       191
  94.50000,       172
  95.00000,       209
  95.50000,       211
  96.00000,       213
  96.50000,       199
  97.00000,       197
  97.50000,       199
  98.00000,       208
  98.50000,       196
  99.00000,       218
  99.50000,       191
 100.00000,       212
 100.50000,       203
 101.00000,       171
 101.50000,       215
 102.00000,       194
 102.50000,       188
 103.00000,       187
 103.50000,       207
 104.00000,       183
 104.50000,       225
 105.00000,       197
 105.50000,       189
 106.00000,       195
 106.50000,       207
 107.00000,       174
 107.50000,       200
 108.00000,       189
 108.50000,       211
 109.00000,       199
 109.50000,       180
 110.00000,       216
 110.50000,       195
 111.00000,       203
 111.50000,       183
 112.00000,       184
 112.50000,       190
 113.00000,       216
 113.50000,       184
 114.00000,       191
 114.50000,       182
 115.00000,       189
 115.50000,       172
 116.00000,       182
 116.50000,       195
 117.00000,       210
 117.50000,       207
 118.00000,       213
 118.50000,       199
 119.00000,       210
 119.50000,       195
 120.00000,       196
 120.50000,       222
 121.00000,       216
 121.50000,       210
 122.00000,       199
 122.50000,       179
 123.00000,       204
 123.50000,       212
 124.00000,       207
 124.50000,       191
 125.00000,       182
 125.50000,       208
 126.00000,       183
 126.50000,       216
 127.00000,       216
 127.50000,       199
 128.00000,       201
 128.50000,       164
 129.00000,       194
 129.50000,       213
 130.00000,       168
 130.50000,       189
 131.00000,       186
 131.50000,       172
 132.00000,       197
 132.50000,       217
 133.00000,       206
 133.50000,       204
 134.00000,       206
 134.50000,       208
 135.00000,       177
 135.50000,       194
 136.00000,       207
 136.50000,       208
 137.00000,       193
 137.50000,       177
 138.00000,       209
 138.50000,       197
 139.00000,       214
 139.50000,       212
 140.00000,       208
 140.50000,       203
 141.00000,       203
 141.50000,       196
 142.00000,       230
 142.50000,       197
 143.00000,       210
 143.50000,       188
 144.00000,       198
 144.50000,       177
 145.00000,       206
 145.50000,       180
 146.00000,       206
 146.50000,       224
 147.00000,       171
 147.50000,       218
 148.00000,       176
 148.50000,       204
 149.00000,       201
 149.50000,       204
 150.00000,       178
 150.50000,       202
 151.00000,       170
 151.50000,       193
 152.00000,       202
 152.50000,       205
 153.00000,       186
 153.50000,       220
 154.00000,       201
 154.50000,       207
 155.00000,       208
 155.50000,       205
 156.00000,       207
 156.50000,       208
 157.00000,       191
 157.50000,       201
 158.00000,       196
 158.50000,       192
 159.00000,       207
 159.50000,       181
 160.00000,       216
 160.50000,       203
 161.00000,       217
 161.50000,       220
 162.00000,       182
 162.50000,       184
 163.00000,       206
 163.50000,       217
 164.00000,       216
 164.50000,       201
 165.00000,       187
 165.50000,       200
 166.00000,       200
 166.50000,       197
 167.00000,       203
 167.50000,       201
 168.00000,       174
 168.50000,       194
 169.00000,       206
 169.50000,       202
 170.00000,       204
 170.50000,       201
 171.00000,       199
 171.50000,       198
 172.00000,       235
 172.50000,       195
 173.00000,       166
 173.50000,       179
 174.00000,       198
 174.50000,       191
 175.00000,       183
 175.50000,       182
 176.00000,       193
 176.50000,       198
 177.00000,       187
 177.50000,       197
 178.00000,       202
 178.50000,       189
 179.00000,       184
 179.50000,       192
 180.00000,       181
 180.50000,       198
 181.00000,       181
 181.50000,       200
 182.00000,       231
 182.50000,       222
 183.00000,       210
 183.50000,       210
 184.00000,       211
 184.50000,       215
 185.00000,       203
 185.50000,       200
 186.00000,       196
 186.50000,       184
 187.00000,       210
 187.50000,       211
 188.00000,       172
 188.50000,       182
 189.00000,       191
 189.50000,       228
 190.00000,       182
 190.50000,       197
 191.00000,       218
 191.50000,       200
 192.00000,       204
 192.50000,       188
 193.00000,       183
 193.50000,       222
 194.00000,       197
 194.50000,       172
 195.00000,       193
 195.50000,       185
 196.00000,       207
 196.50000,       188
 197.00000,       198
 197.50000,       187
 198.00000,       208
 198.50000,       191
 199.00000,       206
 199.50000,       197
 200.00000,       198
 200.50000,       230
 201.00000,       185
 201.50000,       180
 202.00000,       232
 202.50000,       206
 203.00000,       199
 203.50000,       214
 204.00000,       212
 204.50000,       199
 205.00000,       207
 205.50000,       197
 206.00000,       199
 206.50000,       202
 207.00000,       219
 207.50000,       198
 208.00000,       207
 208.50000,       208
 209.00000,       196
 209.50000,       180
 210.00000,       203
 210.50000,       209
 211.00000,       211
 211.50000,       220
 212.00000,       207
 212.50000,       206
 213.00000,       184
 213.50000,       167
 214.00000,       204
 214.50000,       192
 215.00000,       183
 215.50000,       200
 216.00000,       201
 216.50000,       185
 217.00000,       206
 217.50000,       182
 218.00000,       213
 218.50000,       199
 219.00000,       201
 219.50000,       196
 220.00000,       249
 220.50000,       325
 221.00000,       459
 221.50000,       574
 222.00000,       596
 222.50000,       538
 223.00000,       422
 223.50000,       338
 224.00000,       232
 224.50000,       221
 225.00000,       204
 225.50000,       228
 226.00000,       214
 226.50000,       185
 227.00000,       205
 227.50000,       185
 228.00000,       186
 228.50000,       190
 229.00000,       198
 229.50000,       212
 230.00000,       184
 230.50000,       221
 231.00000,       201
 231.50000,       179
 232.00000,       189
 232.50000,       178
 233.00000,       209
 233.50000,       177
 234.00000,       182
 234.50000,       201
 235.00000,       195
 235.50000,       191
 236.00000,       189
 236.50000,       201
 237.00000,       196
 237.50000,       185
 238.00000,       189
 238.50000,       175
 239.00000,       187
 239.50000,       210
 240.00000,       191
 240.50000,       195
 241.00000,       204
 241.50000,       184
 242.00000,       197
 242.50000,       208
 243.00000,       207
 243.50000,       167
 244.00000,       210
 244.50000,       194
 245.00000,       188
 245.50000,       192
 246.00000,       215
 246.50000,       188
 247.00000,       196
 247.50000,       194
 248.00000,       205
 248.50000,       225
 249.00000,       170
 249.50000,       184
 250.00000,       187
 250.50000,       206
 251.00000,       190
 251.50000,       187
 252.00000,       200
 252.50000,       206
 253.00000,       210
 253.50000,       180
 254.00000,       203
 254.50000,       204
 255.00000,       184
 255.50000,       225
 256.00000,       204
 256.50000,       208
 257.00000,       203
 257.50000,       191
 258.00000,       202
 258.50000,       206
 259.00000,       211
 259.50000,       179
 260.00000,       189
 260.50000,       209
 261.00000,       203
 261.50000,       217
 262.00000,       182
 262.50000,       190
 263.00000,       173
 263.50000,       185
 264.00000,       201
 264.50000,       188
 265.00000,       206
 265.50000,       199
 266.00000,       191
 266.50000,       205
 267.00000,       204
 267.50000,       180
 268.00000,       194
 268.50000,       208
 269.00000,       201
 269.50000,       201
 270.00000,       192
 270.50000,       206
 271.00000,       185
 271.50000,       206
 272.00000,       194
 272.50000,       185
 273.00000,       187
 273.50000,       185
 274.00000,       196
 274.50000,       187
 275.00000,       209
 275.50000,       210
 276.00000,       180
 276.50000,       191
 277.00000,       182
 277.50000,       195
 278.00000,       223
 278.50000,       202
 279.00000,       225
 279.50000,       212
 280.00000,       183
 280.50000,       172
 281.00000,       208
 281.50000,       197
 282.00000,       194
 282.50000,       198
 283.00000,       183
 283.50000,       216
 284.00000,       178
 284.50000,       201
 285.00000,       176
 285.50000,       207
 286.00000,       219
 286.50000,       184
 287.00000,       192
 287.50000,       179
 288.00000,       204
 288.50000,       215
 289.00000,       197
 289.50000,       207
 290.00000,       192
 290.50000,       192
 291.00000,       220
 291.50000,       222
 292.00000,       209
 292.50000,       184
 293.00000,       187
 293.50000,       197
 294.00000,       203
 294.50000,       164
 295.00000,       194
 295.50000,       225
 296.00000,       220
 296.50000,       208
 297.00000,       207
 297.50000,       177
 298.00000,       193
 298.50000,       194
 299.00000,       195
 299.50000,       197
 300.00000,       207
 300.50000,       196
 301.00000,       193
 301.50000,       233
 302.00000,       202
 302.50000,       202
 303.00000,       189
 303.50000,       218
 304.00000,       190
 304.50000,       200
 305.00000,       193
 305.50000,       196
 306.00000,       198
 306.50000,       196
 307.00000,       185
 307.50000,       191
 308.00000,       177
 308.50000,       183
 309.00000,       207
 309.50000,       194
 310.00000,       194
 310.50000,       180
 311.00000,       212
 311.50000,       216
 312.00000,       180
 312.50000,       167
 313.00000,       186
 313.50000,       191
 314.00000,       224
 314.50000,       187
 315.00000,       176
 315.50000,       197
 316.00000,       192
 316.50000,       197
 317.00000,       189
 317.50000,       205
 318.00000,       185
 318.50000,       180
 319.00000,       212
 319.50000,       198
 320.00000,       195
 320.50000,       173
 321.00000,       186
 321.50000,       212
 322.00000,       172
 322.50000,       201
 323.00000,       212
 323.50000,       186
 324.00000,       192
 324.50000,       194
 325.00000,       199
 325.50000,       198
 326.00000,       179
 326.50000,       194
 327.00000,       182
 327.50000,       200
 328.00000,       168
 328.50000,       196
 329.00000,       207
 329.50000,       181
 330.00000,       202
 330.50000,       191
 331.00000,       183
 331.50000,       222
 332.00000,       192
 332.50000,       197
 333.00000,       175
 333.50000,       207
 334.00000,       206
 334.50000,       197
 335.00000,       187
 335.50000,       191
 336.00000,       218
 336.50000,       192
 337.00000,       202
 337.50000,       221
 338.00000,       195
 338.50000,       200
 339.00000,       186
 339.50000,       185
 340.00000,       192
 340.50000,       187
 341.00000,       186
 341.50000,       191
 342.00000,       193
 342.50000,       190
 343.00000,       203
 343.50000,       179
 344.00000,       185
 344.50000,       206
 345.00000,       197
 345.50000,       211
 346.00000,       221
 346.50000,       195
 347.00000,       188
 347.50000,       204
 348.00000,       183
 348.50000,       191
 349.00000,       190
 349.50000,       196
 350.00000,       184
 350.50000,       178
 351.00000,       197
 351.50000,       190
 352.00000,       189
 352.50000,       203
 353.00000,       185
 353.50000,       227
 354.00000,       174
 354.50000,       199
 355.00000,       192
 355.50000,       214
 356.00000,       221
 356.50000,       196
 357.00000,       204
 357.50000,       185
 358.00000,       239
 358.50000,       209
 359.00000,       201
 359.50000,       194
 360.00000,       191
 360.50000,       216
 361.00000,       188
 361.50000,       218
 362.00000,       189
 362.50000,       206
 363.00000,       183
 363.50000,       174
 364.00000,       168
 364.50000,       216
 365.00000,       182
 365.50000,       229
 366.00000,       161
 366.50000,       178
 367.00000,       195
 367.50000,       203
 368.00000,       218
 368.50000,       200
 369.00000,       196
 369.50000,       180
 370.00000,       177
 370.50000,       192
 371.00000,       192
 371.50000,       182
 372.00000,       190
 372.50000,       201
 373.00000,       198
 373.50000,       194
 374.00000,       191
 374.50000,       211
 375.00000,       176
 375.50000,       196
 376.00000,       191
 376.50000,       182
 377.00000,       176
 377.50000,       199
 378.00000,       193
 378.50000,       219
 379.00000,       185
 379.50000,       192
 380.00000,       213
 380.50000,       198
 381.00000,       200
 381.50000,       205
 382.00000,       181
 382.50000,       193
 383.00000,       179
 383.50000,       212
 384.00000,       180
 384.50000,       178
 385.00000,       189
 385.50000,       188
 386.00000,       209
 386.50000,       194
 387.00000,       187
 387.50000,       204
 388.00000,       203
 388.50000,       183
 389.00000,       196
 389.50000,       196
 390.00000,       195
 390.50000,       193
 391.00000,       190
 391.50000,       181
 392.00000,       197
 392.50000,       198
 393.00000,       222
 393.50000,       198
 394.00000,       234
 394.50000,       217
 395.00000,       204
 395.50000,       206
 396.00000,       197
 396.50000,       223
 397.00000,       195
 397.50000,       196
 398.00000,       188
 398.50000,       201
 399.00000,       201
 399.50000,       202
 400.00000,       192
 400.50000,       176
 401.00000,       184
 401.50000,       229
 402.00000,       196
 402.50000,       177
 403.00000,       217
 403.50000,       181
 404.00000,       216
 404.50000,       214
 405.00000,       205
 405.50000,       197
 406.00000,       168
 406.50000,       192
 407.00000,       200
 407.50000,       185
 408.00000,       191
 408.50000,       189
 409.00000,       190
 409.50000,       171
 410.00000,       208
 410.50000,       176
 411.00000,       190
 411.50000,       182
 412.00000,       188
 412.50000,       217
 413.00000,       178
 413.50000,       203
 414.00000,       193
 414.50000,       185
 415.00000,       209
 415.50000,       193
 416.00000,       192
 416.50000,       208
 417.00000,       197
 417.50000,       206
 418.00000,       177
 418.50000,       197
 419.00000,       182
 419.50000,       210
 420.00000,       208
 420.50000,       214
 421.00000,       206
 421.50000,       210
 422.00000,       199
 422.50000,       205
 423.00000,       199
 423.50000,       196
 424.00000,       190
 424.50000,       174
 425.00000,       201
 425.50000,       219
 426.00000,       206
 426.50000,       188
 427.00000,       185
 427.50000,       174
 428.00000,       204
 428.50000,       206
 429.00000,       196
 429.50000,       204
 430.00000,       183
 430.50000,       197
 431.00000,       181
 431.50000,       190
 432.00000,       183
 432.50000,       202
 433.00000,       167
 433.50000,       199
 434.00000,       200
 434.50000,       196
 435.00000,       186
 435.50000,       191
 436.00000,       191
 436.50000,       193
 437.00000,       202
 437.50000,       198
 438.00000,       182
 438.50000,       180
 439.00000,       184
 439.50000,       203
 440.00000,       173
 440.50000,       191
 441.00000,       195
 441.50000,       219
 442.00000,       181
 442.50000,       210
 443.00000,       197
 443.50000,       198
 444.00000,       192
 444.50000,       198
 445.00000,       205
 445.50000,       182
 446.00000,       189
 446.50000,       166
 447.00000,       192
 447.50000,       197
 448.00000,       202
 448.50000,       194
 449.00000,       211
 449.50000,       201
 450.00000,       196
 450.50000,       214
 451.00000,       192
 451.50000,       178
 452.00000,       203
 452.50000,       209
 453.00000,       221
 453.50000,       209
